Wavelength,S2c,Wavelength,S2
nm,V,nm,V
1100,0.00130033458417892,1100,0.00115796
1110,0.00107098725934982,1110,9.6976E-4
1120,9.36568350234032E-4,1120,8.5956E-4
1130,0.00124555077122688,1130,0.00115556
1140,0.00117871695333481,1140,0.00110256
1150,0.00114253824941158,1150,0.00107524
1160,0.00111632091032028,1160,0.00105424
1170,0.00129897671808243,1170,0.00122716
1180,0.00117145924694061,1180,0.00110548
1190,0.00129713203485489,1190,0.00122128
1200,0.00130670316672325,1200,0.00122728
1210,0.00132943698273182,1210,0.00124596
1220,0.00133316448778152,1220,0.00124752
1230,0.00129671876051903,1230,0.00121176
1240,0.00111986704813957,1240,0.00104632
1250,0.00134918444165707,1250,0.00126044
1260,0.00131503558444977,1260,0.001228
1270,0.00129262067459106,1270,0.00120704
1280,0.00128150116155148,1280,0.00119684
1290,0.00135938819091797,1290,0.00127704
1300,0.0014133291528368,1300,0.00134724
1310,0.00139896557378769,1310,0.0013596
1320,0.00144192909135818,1320,0.00142832
1330,0.00140524,1330,0.00140524
1340,0.00142440525754452,1340,0.00140868
1350,0.00164898485593796,1350,0.00158576
1360,0.00170483455272675,1360,0.00158632
1370,0.00127578740662575,1370,0.00116024
1380,0.0015238330514431,1380,0.001366
1390,0.0016910427828598,1390,0.00150536
1400,0.00157409368075848,1400,0.00139428
1410,0.00174473090255737,1410,0.00154312
1420,0.00175260155265331,1420,0.0015446
1430,0.00180177395243645,1430,0.00157588
1440,0.00214227060539722,1440,0.00185044
1450,0.00197178725393295,1450,0.00167708
1460,0.00217241607227325,1460,0.0018168
1470,0.00233078735408783,1470,0.0019112
1480,0.00220357850083351,1480,0.00176952
1490,0.00224489755574226,1490,0.00176312
1500,0.00255563498535156,1500,0.00196384
